IESNA:LM-63-2002
[TEST] 826729
[TESTLAB] UL Verification Services
[ISSUEDATE] 4/26/2020
[MANUFAC] COOPER CROUSE-HINDS
[LUMCAT] VMVL-9-W-R3-UNV1
[LUMINAIRE] N/A
[LAMPCAT] N/A. LUMINAIRE OUTPUT
[LAMP] N/A
[_AGI32] File was generated from AGi32
TILT=NONE
1 7748 0.9955 37 17 1 1 -0.58 -0.58 0
1 1 73
0 2.5 5 7.5 10 12.5 15 17.5 20 22.5 25 27.5 30 32.5 35 37.5 40 42.5 45 47.5 50 52.5 55 57.5 60 62.5 65 67.5 70 72.5 75 77.5 80 82.5 85 87.5 90
0 22.5 45 67.5 90 112.5 135 157.5 180 202.5 225 247.5 270 292.5 315 337.5 360
1753.882 1913.764 2082.746 2244.449 2320.067 2317.883 2326.437 2366.84 2428.991 2509.524 2595.334 2669.042 2738.018 2766.318 2730.465 2679.871 2628.912 2589.055 2492.416 2361.107 2219.788 2146.99 2048.713 1917.04 1799.199 1592.544 1299.169 1016.349 
734.985 556.085 457.443 394.382 349.43 276.723 210.022 140.864 68.885
1753.882 1893.381 2039.796 2196.311 2290.766 2310.058 2308.42 2336.902 2382.037 2439.638 2506.703 2569.218 2626.728 2653.391 2667.95 2635.737 2579.865 2528.087 2488.139 2402.42 2287.035 2148.719 2055.811 1982.194 1840.967 1681.448 1431.661 1155.393 
864.019 683.663 562.545 478.009 410.944 340.876 256.339 162.339 62.697
1753.882 1860.622 1975.097 2100.127 2221.79 2298.501 2321.614 2333.08 2356.557 2402.42 2463.115 2536.459 2612.442 2687.515 2758.128 2822.737 2869.054 2837.66 2787.976 2743.296 2706.806 2634.372 2480.041 2248.089 2023.416 1847.973 1638.68 1358.408 1021.627
 679.204 436.332 326.953 271.718 227.038 174.169 87.539 39.857
1753.882 1815.032 1879.913 1949.526 2023.143 2105.951 2196.129 2294.497 2380.308 2452.832 2502.972 2537.733 2565.123 2606.436 2656.757 2710.719 2751.486 2797.166 2860.682 2938.303 3005.641 3062.605 3059.966 3019.837 2979.707 2971.062 2902.45 2708.353 
2356.193 1983.195 1401.086 672.561 341.968 212.206 122.482 51.959 35.671
1753.882 1759.979 1766.44 1777.086 1796.651 1813.667 1837.782 1866.628 1901.389 1947.16 1978.372 2001.213 2030.059 2067.095 2101.219 2122.512 2144.534 2198.222 2272.658 2373.301 2495.692 2648.113 2810.816 2927.292 3053.688 3132.582 3112.108 3010.919 
2634.099 1813.03 804.78 450.619 239.141 134.494 64.79 37.582 29.21
1753.882 1686.908 1623.483 1562.879 1515.56 1501.365 1511.829 1529.756 1546.317 1555.69 1535.398 1483.438 1416.464 1355.496 1289.25 1223.095 1159.033 1111.441 1086.053 1075.042 1070.31 1074.314 1084.961 1107.073 1135.555 1127.002 1057.571 911.975 777.026 
620.966 420.226 238.686 170.438 105.466 51.595 21.475 17.835
1753.882 1629.671 1506.824 1465.421 1481.80 1483.165 1463.328 1424.472 1367.235 1264.954 1113.989 932.631 781.03 697.676 659.003 632.067 601.947 572.919 546.348 523.235 507.037 494.388 490.839 494.297 502.578 497.937 461.447 379.095 286.642 210.75 161.884
 134.767 116.022 97.731 65.063 15.834 10.283
1753.882 1581.806 1459.324 1459.688 1448.131 1406.818 1353.494 1272.142 1124.454 955.108 818.885 746.178 707.686 687.94 677.384 666.373 655.545 639.984 622.695 606.861 589.39 565.457 544.71 535.155 525.873 500.394 427.323 341.877 263.437 213.753 187.454 
166.252 132.674 93.363 52.869 16.289 9.464
1753.882 1578.803 1459.051 1464.875 1434.209 1381.248 1315.912 1199.072 1036.004 886.769 782.395 716.24 689.123 688.486 679.75 680.478 668.284 657.638 643.169 631.339 608.044 594.849 583.202 570.553 575.285 529.058 445.25 368.539 282.274 226.31 191.185 
157.698 123.574 78.804 40.585 18.563 11.193
1753.882 1581.806 1459.324 1459.688 1448.131 1406.818 1353.494 1272.142 1124.454 955.108 818.885 746.178 707.686 687.94 677.384 666.373 655.545 639.984 622.695 606.861 589.39 565.457 544.71 535.155 525.873 500.394 427.323 341.877 263.437 213.753 187.454 
166.252 132.674 93.363 52.869 16.289 9.464
1753.882 1629.671 1506.824 1465.421 1481.80 1483.165 1463.328 1424.472 1367.235 1264.954 1113.989 932.631 781.03 697.676 659.003 632.067 601.947 572.919 546.348 523.235 507.037 494.388 490.839 494.297 502.578 497.937 461.447 379.095 286.642 210.75 161.884
 134.767 116.022 97.731 65.063 15.834 10.283
1753.882 1686.908 1623.483 1562.879 1515.56 1501.365 1511.829 1529.756 1546.317 1555.69 1535.398 1483.438 1416.464 1355.496 1289.25 1223.095 1159.033 1111.441 1086.053 1075.042 1070.31 1074.314 1084.961 1107.073 1135.555 1127.002 1057.571 911.975 777.026 
620.966 420.226 238.686 170.438 105.466 51.595 21.475 17.835
1753.882 1759.979 1766.44 1777.086 1796.651 1813.667 1837.782 1866.628 1901.389 1947.16 1978.372 2001.213 2030.059 2067.095 2101.219 2122.512 2144.534 2198.222 2272.658 2373.301 2495.692 2648.113 2810.816 2927.292 3053.688 3132.582 3112.108 3010.919 
2634.099 1813.03 804.78 450.619 239.141 134.494 64.79 37.582 29.21
1753.882 1815.032 1879.913 1949.526 2023.143 2105.951 2196.129 2294.497 2380.308 2452.832 2502.972 2537.733 2565.123 2606.436 2656.757 2710.719 2751.486 2797.166 2860.682 2938.303 3005.641 3062.605 3059.966 3019.837 2979.707 2971.062 2902.45 2708.353 
2356.193 1983.195 1401.086 672.561 341.968 212.206 122.482 51.959 35.671
1753.882 1860.622 1975.097 2100.127 2221.79 2298.501 2321.614 2333.08 2356.557 2402.42 2463.115 2536.459 2612.442 2687.515 2758.128 2822.737 2869.054 2837.66 2787.976 2743.296 2706.806 2634.372 2480.041 2248.089 2023.416 1847.973 1638.68 1358.408 1021.627
 679.204 436.332 326.953 271.718 227.038 174.169 87.539 39.857
1753.882 1893.381 2039.796 2196.311 2290.766 2310.058 2308.42 2336.902 2382.037 2439.638 2506.703 2569.218 2626.728 2653.391 2667.95 2635.737 2579.865 2528.087 2488.139 2402.42 2287.035 2148.719 2055.811 1982.194 1840.967 1681.448 1431.661 1155.393 
864.019 683.663 562.545 478.009 410.944 340.876 256.339 162.339 62.697
1753.882 1913.764 2082.746 2244.449 2320.067 2317.883 2326.437 2366.84 2428.991 2509.524 2595.334 2669.042 2738.018 2766.318 2730.465 2679.871 2628.912 2589.055 2492.416 2361.107 2219.788 2146.99 2048.713 1917.04 1799.199 1592.544 1299.169 1016.349 
734.985 556.085 457.443 394.382 349.43 276.723 210.022 140.864 68.885
