IESNA:LM-63-2002
[TEST] 826736
[TESTLAB] UL Verfication Services
[ISSUEDATE] 4/24/2020
[MANUFAC] COOPER CROUSE-HINDS
[LUMCAT] PVML-11-W-R3-UNV1
[LUMINAIRE] n/a
[LAMPCAT] n/a. LUMINAIRE OUTPUT
[LAMP] n/a
[_AGI32] File was generated from AGi32
TILT=NONE
1 9709 1.01484 37 17 1 1 -0.58 -0.58 0
1 1 113.6
0 2.5 5 7.5 10 12.5 15 17.5 20 22.5 25 27.5 30 32.5 35 37.5 40 42.5 45 47.5 50 52.5 55 57.5 60 62.5 65 67.5 70 72.5 75 77.5 80 82.5 85 87.5 90
0 22.5 45 67.5 90 112.5 135 157.5 180 202.5 225 247.5 270 292.5 315 337.5 360
2163.358 2365.817 2562.271 2737.341 2804.949 2798.762 2830.882 2886.024 2963.641 3059.638 3155.09 3258.822 3335.529 3366.831 3318.513 3243.808 3188.848 3152.36 3042.259 2880.473 2714.502 2615.502 2509.131 2340.612 2197.48 1958.533 1586.553 1256.34 922.032
 697.552 577.441 483.446 415.383 319.658 238.948 161.604 78.436
2163.358 2351.622 2530.423 2711.772 2798.034 2804.949 2806.314 2849.627 2910.956 2982.567 3061.185 3142.624 3221.06 3260.642 3264.10 3223.517 3162.005 3115.781 3067.282 2956.452 2821.783 2675.284 2536.338 2450.531 2253.714 2045.886 1740.149 1391.373 
1035.318 820.393 675.35 581.627 495.912 388.722 287.356 181.258 73.158
2163.358 2311.312 2452.351 2611.953 2746.35 2811.865 2833.157 2841.619 2875.196 2940.074 3019.692 3111.413 3214.417 3327.704 3427.705 3521.337 3573.84 3534.44 3462.282 3404.684 3367.832 3263.281 3062.55 2800.945 2534.245 2301.121 2040.335 1674.544 
1246.695 816.116 500.643 392.453 326.028 271.887 202.004 103.55 48.863
2163.358 2251.53 2338.064 2427.783 2517.866 2618.959 2726.695 2839.617 2931.429 3002.131 3060.548 3115.144 3169.103 3228.703 3290.033 3347.54 3406.322 3469.016 3559.918 3648.09 3717.427 3763.56 3739.174 3656.097 3608.508 3596.224 3505.049 3292.489 
2865.823 2392.478 1646.973 760.883 406.284 245.59 142.313 59.964 44.496
2163.358 2159.445 2171.183 2183.922 2203.304 2228.054 2258.90 2296.753 2344.525 2394.571 2445.345 2480.923 2525.237 2577.922 2619.596 2648.896 2680.835 2748.169 2855.905 2989.301 3138.802 3321.698 3504.958 3628.162 3767.018 3862.105 3820.34 3692.312 
3201.951 2159.809 951.695 518.478 274.799 141.676 69.792 40.765 34.941
2163.358 2089.835 2010.217 1939.151 1880.916 1852.89 1857.166 1879.187 1903.664 1914.765 1901.025 1849.887 1779.549 1715.854 1642.878 1557.436 1475.451 1420.582 1392.465 1377.36 1372.811 1379.362 1400.20 1429.499 1460.164 1447.061 1365.349 1182.818 
1001.287 797.826 534.675 296.273 208.738 133.396 62.421 24.386 18.654
2163.358 2006.031 1856.984 1784.918 1805.30 1818.949 1804.845 1755.982 1682.642 1565.17 1395.195 1169.624 968.529 852.24 796.643 765.16 725.305 693.821 661.61 631.764 610.654 591.363 587.542 594.275 599.462 592.91 538.405 448.595 337.311 248.32 195.362 
163.514 143.587 118.109 73.886 19.563 9.827
2163.358 1954.074 1792.015 1782.097 1776.183 1733.689 1666.536 1563.987 1397.652 1195.375 1009.294 909.93 862.067 836.862 824.669 811.202 800.556 778.991 759.973 738.954 711.292 679.262 650.145 635.95 619.935 582.173 489.633 396.365 311.924 257.055 
229.029 204.279 162.422 113.923 65.97 22.02 8.189
2163.358 1950.252 1782.461 1782.37 1756.983 1693.106 1607.664 1468.535 1278.451 1101.47 945.599 864.433 836.316 825.943 823.486 822.03 810.565 796.279 783.176 768.982 739.955 711.838 698.28 677.716 672.438 626.214 511.289 414.746 334.035 267.064 227.027 
187.809 141.039 91.994 52.867 19.20 13.649
2163.358 1954.074 1792.015 1782.097 1776.183 1733.689 1666.536 1563.987 1397.652 1195.375 1009.294 909.93 862.067 836.862 824.669 811.202 800.556 778.991 759.973 738.954 711.292 679.262 650.145 635.95 619.935 582.173 489.633 396.365 311.924 257.055 
229.029 204.279 162.422 113.923 65.97 22.02 8.189
2163.358 2006.031 1856.984 1784.918 1805.30 1818.949 1804.845 1755.982 1682.642 1565.17 1395.195 1169.624 968.529 852.24 796.643 765.16 725.305 693.821 661.61 631.764 610.654 591.363 587.542 594.275 599.462 592.91 538.405 448.595 337.311 248.32 195.362 
163.514 143.587 118.109 73.886 19.563 9.827
2163.358 2089.835 2010.217 1939.151 1880.916 1852.89 1857.166 1879.187 1903.664 1914.765 1901.025 1849.887 1779.549 1715.854 1642.878 1557.436 1475.451 1420.582 1392.465 1377.36 1372.811 1379.362 1400.20 1429.499 1460.164 1447.061 1365.349 1182.818 
1001.287 797.826 534.675 296.273 208.738 133.396 62.421 24.386 18.654
2163.358 2159.445 2171.183 2183.922 2203.304 2228.054 2258.90 2296.753 2344.525 2394.571 2445.345 2480.923 2525.237 2577.922 2619.596 2648.896 2680.835 2748.169 2855.905 2989.301 3138.802 3321.698 3504.958 3628.162 3767.018 3862.105 3820.34 3692.312 
3201.951 2159.809 951.695 518.478 274.799 141.676 69.792 40.765 34.941
2163.358 2251.53 2338.064 2427.783 2517.866 2618.959 2726.695 2839.617 2931.429 3002.131 3060.548 3115.144 3169.103 3228.703 3290.033 3347.54 3406.322 3469.016 3559.918 3648.09 3717.427 3763.56 3739.174 3656.097 3608.508 3596.224 3505.049 3292.489 
2865.823 2392.478 1646.973 760.883 406.284 245.59 142.313 59.964 44.496
2163.358 2311.312 2452.351 2611.953 2746.35 2811.865 2833.157 2841.619 2875.196 2940.074 3019.692 3111.413 3214.417 3327.704 3427.705 3521.337 3573.84 3534.44 3462.282 3404.684 3367.832 3263.281 3062.55 2800.945 2534.245 2301.121 2040.335 1674.544 
1246.695 816.116 500.643 392.453 326.028 271.887 202.004 103.55 48.863
2163.358 2351.622 2530.423 2711.772 2798.034 2804.949 2806.314 2849.627 2910.956 2982.567 3061.185 3142.624 3221.06 3260.642 3264.10 3223.517 3162.005 3115.781 3067.282 2956.452 2821.783 2675.284 2536.338 2450.531 2253.714 2045.886 1740.149 1391.373 
1035.318 820.393 675.35 581.627 495.912 388.722 287.356 181.258 73.158
2163.358 2365.817 2562.271 2737.341 2804.949 2798.762 2830.882 2886.024 2963.641 3059.638 3155.09 3258.822 3335.529 3366.831 3318.513 3243.808 3188.848 3152.36 3042.259 2880.473 2714.502 2615.502 2509.131 2340.612 2197.48 1958.533 1586.553 1256.34 922.032
 697.552 577.441 483.446 415.383 319.658 238.948 161.604 78.436
